Theta [deg.]  Phi   [deg.]  Abs(V   )[dBV   ]   Abs(Theta)[dBV   ]  Phase(Theta)[deg.]  Abs(Phi  )[dBV   ]  Phase(Phi  )[deg.]  Ax.Ratio[dB    ]    
   0.000          90.000            2.802e+01           2.802e+01             312.344          -1.824e+02             137.995           4.000e+01
   1.000          90.000            2.801e+01           2.801e+01             312.328          -1.223e+02             302.450           4.000e+01     
   2.000          90.000            2.799e+01           2.799e+01             312.279          -1.163e+02             302.359           4.000e+01     
   3.000          90.000            2.794e+01           2.794e+01             312.199          -1.128e+02             302.216           4.000e+01     
   4.000          90.000            2.788e+01           2.788e+01             312.087          -1.104e+02             302.019           4.000e+01     
   5.000          90.000            2.780e+01           2.780e+01             311.945          -1.086e+02             301.765           4.000e+01     
   6.000          90.000            2.771e+01           2.771e+01             311.772          -1.071e+02             301.456           4.000e+01     
   7.000          90.000            2.759e+01           2.759e+01             311.570          -1.059e+02             301.090           4.000e+01     
   8.000          90.000            2.746e+01           2.746e+01             311.340          -1.050e+02             300.668           4.000e+01     
   9.000          90.000            2.731e+01           2.731e+01             311.084          -1.041e+02             300.189           4.000e+01     
  10.000          90.000            2.715e+01           2.715e+01             310.803          -1.035e+02             299.654           4.000e+01     
  11.000          90.000            2.696e+01           2.696e+01             310.499          -1.029e+02             299.061           4.000e+01     
  12.000          90.000            2.676e+01           2.676e+01             310.174          -1.024e+02             298.411           4.000e+01     
  13.000          90.000            2.654e+01           2.654e+01             309.831          -1.020e+02             297.703           4.000e+01     
  14.000          90.000            2.630e+01           2.630e+01             309.473          -1.017e+02             296.936           4.000e+01     
  15.000          90.000            2.604e+01           2.604e+01             309.102          -1.015e+02             296.111           4.000e+01     
  16.000          90.000            2.577e+01           2.577e+01             308.723          -1.014e+02             295.225           4.000e+01     
  17.000          90.000            2.548e+01           2.548e+01             308.340          -1.013e+02             294.278           4.000e+01     
  18.000          90.000            2.517e+01           2.517e+01             307.957          -1.013e+02             293.269           4.000e+01     
  19.000          90.000            2.483e+01           2.483e+01             307.579          -1.013e+02             292.196           4.000e+01     
  20.000          90.000            2.449e+01           2.449e+01             307.212          -1.015e+02             291.056           4.000e+01     
  21.000          90.000            2.412e+01           2.412e+01             306.864          -1.016e+02             289.846           4.000e+01     
  22.000          90.000            2.373e+01           2.373e+01             306.541          -1.019e+02             288.564           4.000e+01     
  23.000          90.000            2.333e+01           2.333e+01             306.251          -1.023e+02             287.203           4.000e+01     
  24.000          90.000            2.290e+01           2.290e+01             306.006          -1.027e+02             285.757           4.000e+01     
  25.000          90.000            2.246e+01           2.246e+01             305.814          -1.032e+02             284.217           4.000e+01     
  26.000          90.000            2.200e+01           2.200e+01             305.688          -1.039e+02             282.568           4.000e+01     
  27.000          90.000            2.153e+01           2.153e+01             305.640          -1.046e+02             280.791           4.000e+01     
  28.000          90.000            2.103e+01           2.103e+01             305.686          -1.055e+02             278.855           4.000e+01     
  29.000          90.000            2.052e+01           2.052e+01             305.842          -1.066e+02             276.710           4.000e+01     
  30.000          90.000            2.000e+01           2.000e+01             306.125          -1.079e+02             274.269           4.000e+01     
  31.000          90.000            1.946e+01           1.946e+01             306.555          -1.095e+02             271.367           4.000e+01     
  32.000          90.000            1.892e+01           1.892e+01             307.152          -1.116e+02             267.650           4.000e+01     
  33.000          90.000            1.836e+01           1.836e+01             307.935          -1.145e+02             262.188           4.000e+01     
  34.000          90.000            1.781e+01           1.781e+01             308.926          -1.188e+02             251.639           4.000e+01     
  35.000          90.000            1.725e+01           1.725e+01             310.141          -1.259e+02             214.815           4.000e+01     
  36.000          90.000            1.671e+01           1.671e+01             311.595          -1.235e+02             129.300           4.000e+01     
  37.000          90.000            1.618e+01           1.618e+01             313.296          -1.172e+02             105.727           4.000e+01     
  38.000          90.000            1.568e+01           1.568e+01             315.241          -1.133e+02              97.151           4.000e+01     
  39.000          90.000            1.520e+01           1.520e+01             317.416          -1.106e+02              92.019           4.000e+01     
  40.000          90.000            1.477e+01           1.477e+01             319.793          -1.085e+02              88.139           4.000e+01     
  41.000          90.000            1.439e+01           1.439e+01             322.326          -1.069e+02              84.826           4.000e+01     
  42.000          90.000            1.407e+01           1.407e+01             324.956          -1.055e+02              81.802           4.000e+01     
  43.000          90.000            1.380e+01           1.380e+01             327.610          -1.043e+02              78.933           4.000e+01     
  44.000          90.000            1.360e+01           1.360e+01             330.212          -1.033e+02              76.145           4.000e+01     
  45.000          90.000            1.345e+01           1.345e+01             332.685          -1.025e+02              73.397           4.000e+01     
  46.000          90.000            1.336e+01           1.336e+01             334.961          -1.017e+02              70.660           4.000e+01     
  47.000          90.000            1.332e+01           1.332e+01             336.986          -1.010e+02              67.920           4.000e+01     
  48.000          90.000            1.331e+01           1.331e+01             338.720          -1.004e+02              65.163           4.000e+01     
  49.000          90.000            1.334e+01           1.334e+01             340.140          -9.982e+01              62.382           4.000e+01     
  50.000          90.000            1.339e+01           1.339e+01             341.235          -9.932e+01              59.573           4.000e+01     
  51.000          90.000            1.345e+01           1.345e+01             342.009          -9.886e+01              56.733           4.000e+01     
  52.000          90.000            1.352e+01           1.352e+01             342.469          -9.845e+01              53.860           4.000e+01     
  53.000          90.000            1.360e+01           1.360e+01             342.633          -9.807e+01              50.951           4.000e+01     
  54.000          90.000            1.367e+01           1.367e+01             342.517          -9.773e+01              48.009           4.000e+01     
  55.000          90.000            1.374e+01           1.374e+01             342.142          -9.742e+01              45.033           4.000e+01     
  56.000          90.000            1.380e+01           1.380e+01             341.526          -9.713e+01              42.026           4.000e+01     
  57.000          90.000            1.385e+01           1.385e+01             340.687          -9.687e+01              38.989           4.000e+01     
  58.000          90.000            1.388e+01           1.388e+01             339.644          -9.663e+01              35.925           4.000e+01     
  59.000          90.000            1.391e+01           1.391e+01             338.410          -9.640e+01              32.837           4.000e+01     
  60.000          90.000            1.392e+01           1.392e+01             337.001          -9.620e+01              29.726           4.000e+01     
  61.000          90.000            1.392e+01           1.392e+01             335.429          -9.601e+01              26.597           4.000e+01     
  62.000          90.000            1.391e+01           1.391e+01             333.703          -9.584e+01              23.452           4.000e+01     
  63.000          90.000            1.388e+01           1.388e+01             331.834          -9.568e+01              20.294           4.000e+01     
  64.000          90.000            1.384e+01           1.384e+01             329.828          -9.553e+01              17.128           4.000e+01     
  65.000          90.000            1.379e+01           1.379e+01             327.692          -9.540e+01              13.955           4.000e+01     
  66.000          90.000            1.372e+01           1.372e+01             325.431          -9.527e+01              10.780           4.000e+01     
  67.000          90.000            1.364e+01           1.364e+01             323.049          -9.516e+01               7.603           4.000e+01     
  68.000          90.000            1.356e+01           1.356e+01             320.550          -9.506e+01               4.429           4.000e+01     
  69.000          90.000            1.346e+01           1.346e+01             317.936          -9.497e+01               1.258           4.000e+01     
  70.000          90.000            1.335e+01           1.335e+01             315.209          -9.489e+01             358.093           4.000e+01     
  71.000          90.000            1.323e+01           1.323e+01             312.369          -9.482e+01             354.936           4.000e+01     
  72.000          90.000            1.310e+01           1.310e+01             309.419          -9.476e+01             351.786           4.000e+01     
  73.000          90.000            1.297e+01           1.297e+01             306.358          -9.471e+01             348.645           4.000e+01     
  74.000          90.000            1.283e+01           1.283e+01             303.189          -9.467e+01             345.514           4.000e+01     
  75.000          90.000            1.269e+01           1.269e+01             299.911          -9.465e+01             342.391           4.000e+01     
  76.000          90.000            1.254e+01           1.254e+01             296.526          -9.463e+01             339.277           4.000e+01     
  77.000          90.000            1.239e+01           1.239e+01             293.036          -9.462e+01             336.170           4.000e+01     
  78.000          90.000            1.224e+01           1.224e+01             289.444          -9.462e+01             333.069           4.000e+01     
  79.000          90.000            1.209e+01           1.209e+01             285.754          -9.464e+01             329.972           4.000e+01     
  80.000          90.000            1.194e+01           1.194e+01             281.968          -9.467e+01             326.878           4.000e+01     
  81.000          90.000            1.180e+01           1.180e+01             278.094          -9.470e+01             323.783           4.000e+01     
  82.000          90.000            1.166e+01           1.166e+01             274.139          -9.475e+01             320.686           4.000e+01     
  83.000          90.000            1.153e+01           1.153e+01             270.109          -9.482e+01             317.582           4.000e+01     
  84.000          90.000            1.140e+01           1.140e+01             266.014          -9.489e+01             314.469           4.000e+01     
  85.000          90.000            1.128e+01           1.128e+01             261.864          -9.498e+01             311.343           4.000e+01     
  86.000          90.000            1.117e+01           1.117e+01             257.670          -9.508e+01             308.199           4.000e+01     
  87.000          90.000            1.107e+01           1.107e+01             253.443          -9.520e+01             305.033           4.000e+01     
  88.000          90.000            1.097e+01           1.097e+01             249.195          -9.533e+01             301.840           4.000e+01     
  89.000          90.000            1.088e+01           1.088e+01             244.935          -9.547e+01             298.614           4.000e+01     
  90.000          90.000            1.080e+01           1.080e+01             240.676          -9.563e+01             295.350           4.000e+01     
  91.000          90.000            1.073e+01           1.073e+01             236.425          -9.580e+01             292.041           4.000e+01     
  92.000          90.000            1.066e+01           1.066e+01             232.192          -9.599e+01             288.681           4.000e+01     
  93.000          90.000            1.059e+01           1.059e+01             227.984          -9.619e+01             285.261           4.000e+01     
  94.000          90.000            1.053e+01           1.053e+01             223.805          -9.641e+01             281.774           4.000e+01     
  95.000          90.000            1.047e+01           1.047e+01             219.658          -9.665e+01             278.211           4.000e+01     
  96.000          90.000            1.040e+01           1.040e+01             215.547          -9.690e+01             274.563           4.000e+01     
  97.000          90.000            1.033e+01           1.033e+01             211.470          -9.716e+01             270.819           4.000e+01     
  98.000          90.000            1.025e+01           1.025e+01             207.425          -9.744e+01             266.969           4.000e+01     
  99.000          90.000            1.017e+01           1.017e+01             203.409          -9.774e+01             263.001           4.000e+01     
 100.000          90.000            1.008e+01           1.008e+01             199.417          -9.805e+01             258.902           4.000e+01     
 101.000          90.000            9.974e+00           9.974e+00             195.442          -9.838e+01             254.659           4.000e+01     
 102.000          90.000            9.858e+00           9.858e+00             191.474          -9.872e+01             250.259           4.000e+01     
 103.000          90.000            9.726e+00           9.726e+00             187.505          -9.907e+01             245.687           4.000e+01     
 104.000          90.000            9.579e+00           9.579e+00             183.522          -9.943e+01             240.928           4.000e+01     
 105.000          90.000            9.413e+00           9.413e+00             179.512          -9.981e+01             235.970           4.000e+01     
 106.000          90.000            9.229e+00           9.229e+00             175.460          -1.002e+02             230.797           4.000e+01     
 107.000          90.000            9.024e+00           9.024e+00             171.349          -1.006e+02             225.397           4.000e+01     
 108.000          90.000            8.798e+00           8.798e+00             167.160          -1.010e+02             219.759           4.000e+01     
 109.000          90.000            8.551e+00           8.551e+00             162.870          -1.014e+02             213.874           4.000e+01     
 110.000          90.000            8.280e+00           8.280e+00             158.454          -1.017e+02             207.737           4.000e+01     
 111.000          90.000            7.988e+00           7.988e+00             153.886          -1.021e+02             201.346           4.000e+01     
 112.000          90.000            7.673e+00           7.673e+00             149.133          -1.025e+02             194.701           4.000e+01     
 113.000          90.000            7.337e+00           7.337e+00             144.162          -1.028e+02             187.808           4.000e+01     
 114.000          90.000            6.984e+00           6.984e+00             138.934          -1.031e+02             180.672           4.000e+01     
 115.000          90.000            6.616e+00           6.616e+00             133.407          -1.035e+02             173.303           4.000e+01     
 116.000          90.000            6.239e+00           6.239e+00             127.541          -1.037e+02             165.710           4.000e+01     
 117.000          90.000            5.861e+00           5.861e+00             121.295          -1.040e+02             157.899           4.000e+01     
 118.000          90.000            5.493e+00           5.493e+00             114.637          -1.042e+02             149.874           4.000e+01     
 119.000          90.000            5.147e+00           5.147e+00             107.547          -1.044e+02             141.634           4.000e+01     
 120.000          90.000            4.838e+00           4.838e+00             100.028          -1.046e+02             133.177           4.000e+01     
 121.000          90.000            4.585e+00           4.585e+00              92.116          -1.047e+02             124.498           4.000e+01     
 122.000          90.000            4.402e+00           4.402e+00              83.884          -1.048e+02             115.598           4.000e+01     
 123.000          90.000            4.303e+00           4.303e+00              75.445          -1.049e+02             106.485           4.000e+01     
 124.000          90.000            4.296e+00           4.296e+00              66.942          -1.048e+02              97.187           4.000e+01     
 125.000          90.000            4.380e+00           4.380e+00              58.528          -1.047e+02              87.753           4.000e+01     
 126.000          90.000            4.548e+00           4.548e+00              50.349          -1.045e+02              78.260           4.000e+01     
 127.000          90.000            4.785e+00           4.785e+00              42.519          -1.043e+02              68.808           4.000e+01     
 128.000          90.000            5.076e+00           5.076e+00              35.116          -1.039e+02              59.513           4.000e+01     
 129.000          90.000            5.403e+00           5.403e+00              28.178          -1.035e+02              50.480           4.000e+01     
 130.000          90.000            5.749e+00           5.749e+00              21.710          -1.030e+02              41.834           4.000e+01     
